Wavelength;Response
852.7; 0.0000695372
852.8; 0.0001272387
852.9; 0.0002281919
853.0; 0.0004008222
853.1; 0.0006900392
853.2; 0.0011635360
853.3; 0.0019222910
853.4; 0.0031125680
853.5; 0.0049365930
853.6; 0.0076735060
853.7; 0.0116839700
853.8; 0.0174318700
853.9; 0.0254895700
854.0; 0.0365138200
854.1; 0.0512666700
854.2; 0.0705240300
854.3; 0.0950786300
854.4; 0.1256546000
854.5; 0.1627500000
854.6; 0.2066830000
854.7; 0.2573219000
854.8; 0.3141932000
854.9; 0.3763830000
855.0; 0.4424174000
855.1; 0.5105999000
855.2; 0.5788145000
855.3; 0.6449800000
855.4; 0.7071130000
855.5; 0.7634154000
855.6; 0.8126983000
855.7; 0.8542245000
855.8; 0.8879669000
855.9; 0.9144536000
856.0; 0.9346189000
856.1; 0.9497302000
856.2; 0.9610829000
856.3; 0.9698807000
856.4; 0.9770528000
856.5; 0.9831684000
856.6; 0.9884655000
856.7; 0.9928920000
856.8; 0.9962525000
856.9; 0.9983378000
857.0; 0.9990498000
857.1; 0.9984902000
857.2; 0.9969755000
857.3; 0.9949906000
857.4; 0.9930916000
857.5; 0.9917890000
857.6; 0.9914260000
857.7; 0.9921058000
857.8; 0.9936681000
857.9; 0.9957336000
858.0; 0.9977935000
858.1; 0.9993435000
858.2; 1.0000000000
858.3; 0.9996019000
858.4; 0.9982445000
858.5; 0.9962619000
858.6; 0.9941381000
858.7; 0.9923962000
858.8; 0.9914617000
858.9; 0.9915636000
859.0; 0.9926753000
859.1; 0.9945236000
859.2; 0.9966507000
859.3; 0.9985335000
859.4; 0.9997085000
859.5; 0.9998841000
859.6; 0.9990158000
859.7; 0.9973166000
859.8; 0.9952025000
859.9; 0.9931905000
860.0; 0.9917762000
860.1; 0.9913047000
860.2; 0.9918911000
860.3; 0.9933895000
860.4; 0.9954319000
860.5; 0.9975126000
860.6; 0.9991209000
860.7; 0.9998583000
860.8; 0.9995433000
860.9; 0.9982509000
861.0; 0.9962987000
861.1; 0.9941634000
861.2; 0.9923709000
861.3; 0.9913591000
861.4; 0.9913758000
861.5; 0.9924156000
861.6; 0.9942228000
861.7; 0.9963498000
861.8; 0.9982738000
861.9; 0.9995210000
862.0; 0.9997820000
862.1; 0.9989917000
862.2; 0.9973435000
862.3; 0.9952411000
862.4; 0.9931986000
862.5; 0.9917189000
862.6; 0.9911631000
862.7; 0.9916672000
862.8; 0.9931056000
862.9; 0.9951249000
863.0; 0.9972253000
863.1; 0.9988912000
863.2; 0.9997099000
863.3; 0.9994802000
863.4; 0.9982560000
863.5; 0.9963381000
863.6; 0.9941947000
863.7; 0.9923537000
863.8; 0.9912650000
863.9; 0.9911950000
864.0; 0.9921599000
864.1; 0.9939223000
864.2; 0.9960458000
864.3; 0.9980082000
864.4; 0.9993267000
864.5; 0.9996742000
864.6; 0.9989643000
864.7; 0.9973708000
864.8; 0.9952838000
864.9; 0.9932135000
865.0; 0.9916698000
865.1; 0.9910293000
865.2; 0.9914491000
865.3; 0.9928240000
865.4; 0.9948164000
865.5; 0.9969331000
865.6; 0.9986547000
865.7; 0.9995548000
865.8; 0.9994120000
865.9; 0.9982591000
866.0; 0.9963793000
866.1; 0.9942313000
866.2; 0.9923442000
866.3; 0.9911790000
866.4; 0.9910211000
866.5; 0.9919082000
866.6; 0.9936221000
866.7; 0.9957383000
866.8; 0.9977365000
866.9; 0.9991251000
867.0; 0.9995598000
867.1; 0.9989329000
867.2; 0.9973976000
867.3; 0.9953298000
867.4; 0.9932349000
867.5; 0.9916288000
867.6; 0.9909034000
867.7; 0.9912365000
867.8; 0.9925445000
867.9; 0.9945061000
868.0; 0.9966358000
868.1; 0.9984110000
868.2; 0.9993921000
868.3; 0.9993379000
868.4; 0.9982595000
868.5; 0.9964215000
868.6; 0.9942726000
868.7; 0.9923419000
868.8; 0.9911011000
868.9; 0.9908541000
869.0; 0.9916606000
869.1; 0.9933221000
869.2; 0.9954272000
869.3; 0.9974582000
869.4; 0.9989156000
869.5; 0.9994381000
869.6; 0.9988966000
869.7; 0.9974232000
869.8; 0.9953784000
869.9; 0.9932622000
870.0; 0.9915954000
870.1; 0.9907850000
870.2; 0.9910296000
870.3; 0.9922673000
870.4; 0.9941941000
870.5; 0.9963332000
870.6; 0.9981596000
870.7; 0.9992213000
870.8; 0.9992572000
870.9; 0.9982563000
871.0; 0.9964641000
871.1; 0.9943180000
871.2; 0.9923464000
871.3; 0.9910310000
871.4; 0.9906938000
871.5; 0.9914170000
871.6; 0.9930223000
871.7; 0.9951123000
871.8; 0.9971730000
871.9; 0.9986975000
872.0; 0.9993081000
872.1; 0.9988538000
872.2; 0.9974450000
872.3; 0.9954258000
872.4; 0.9932885000
872.5; 0.9915570000
872.6; 0.9906500000
872.7; 0.9907827000
872.8; 0.9919077000
872.9; 0.9937264000
873.0; 0.9957507000
873.1; 0.9974213000
873.2; 0.9982227000
873.3; 0.9977967000
873.4; 0.9959950000
873.5; 0.9928812000
873.6; 0.9886521000
873.7; 0.9835328000
873.8; 0.9776173000
873.9; 0.9707436000
874.0; 0.9624219000
874.1; 0.9517860000
874.2; 0.9376986000
874.3; 0.9188449000
874.4; 0.8939253000
874.5; 0.8619192000
874.6; 0.8221549000
874.7; 0.7746042000
874.8; 0.7197861000
874.9; 0.6587996000
875.0; 0.5933559000
875.1; 0.5253531000
875.2; 0.4569976000
875.3; 0.3903207000
875.4; 0.3271326000
875.5; 0.2690015000
875.6; 0.2169125000
875.7; 0.1715253000
875.8; 0.1329701000
875.9; 0.1010243000
876.0; 0.0752389300
876.1; 0.0549049000
876.2; 0.0392708100
876.3; 0.0275242900
876.4; 0.0188986300
876.5; 0.0127174000
876.6; 0.0083830110
876.7; 0.0054156210
876.8; 0.0034279070
876.9; 0.0021252420
877.0; 0.0012913250
877.1; 0.0007685004
877.2; 0.0004482356
877.3; 0.0002561451
877.4; 0.0001433591