Wavelength (micrometer) Transmission (upwelling and downwelling for nadir view and sun at zenith)
     0.400000      1.00000
     0.402500      1.00000
     0.405000      1.00000
     0.407500      1.00000
     0.410000      1.00000
     0.412500      1.00000
     0.415000      1.00000
     0.417500      1.00000
     0.420000      1.00000
     0.422500      1.00000
     0.425000      1.00000
     0.427500      1.00000
     0.430000      1.00000
     0.432500      1.00000
     0.435000      1.00000
     0.437500      1.00000
     0.440000      1.00000
     0.442500      1.00000
     0.445000      1.00000
     0.447500      1.00000
     0.450000      1.00000
     0.452500      1.00000
     0.455000      1.00000
     0.457500      1.00000
     0.460000      1.00000
     0.462500      1.00000
     0.465000      1.00000
     0.467500      1.00000
     0.470000      1.00000
     0.472500      1.00000
     0.475000      1.00000
     0.477500      1.00000
     0.480000      1.00000
     0.482500      1.00000
     0.485000      1.00000
     0.487500      1.00000
     0.490000      1.00000
     0.492500      1.00000
     0.495000      1.00000
     0.497500      1.00000
     0.500000      1.00000
     0.502500      1.00000
     0.505000      1.00000
     0.507500      1.00000
     0.510000      1.00000
     0.512500      1.00000
     0.515000      1.00000
     0.517500      1.00000
     0.520000      1.00000
     0.522500      1.00000
     0.525000      1.00000
     0.527500      1.00000
     0.530000      1.00000
     0.532500      1.00000
     0.535000      1.00000
     0.537500      1.00000
     0.540000      1.00000
     0.542500      1.00000
     0.545000      1.00000
     0.547500      1.00000
     0.550000      1.00000
     0.552500      1.00000
     0.555000      1.00000
     0.557500      1.00000
     0.560000      1.00000
     0.562500      1.00000
     0.565000      1.00000
     0.567500      1.00000
     0.570000      1.00000
     0.572500      1.00000
     0.575000      1.00000
     0.577500      1.00000
     0.580000      1.00000
     0.582500      1.00000
     0.585000      1.00000
     0.587500      1.00000
     0.590000      1.00000
     0.592500      1.00000
     0.595000      1.00000
     0.597500      1.00000
     0.600000      1.00000
     0.602500      1.00000
     0.605000      1.00000
     0.607500      1.00000
     0.610000      1.00000
     0.612500      1.00000
     0.615000      1.00000
     0.617500      1.00000
     0.620000      1.00000
     0.622500      1.00000
     0.625000      1.00000
     0.627500      1.00000
     0.630000     0.979600
     0.632500     0.998300
     0.635000      1.00000
     0.637500      1.00000
     0.640000      1.00000
     0.642500      1.00000
     0.645000      1.00000
     0.647500      1.00000
     0.650000      1.00000
     0.652500      1.00000
     0.655000      1.00000
     0.657500      1.00000
     0.660000      1.00000
     0.662500      1.00000
     0.665000      1.00000
     0.667500      1.00000
     0.670000      1.00000
     0.672500      1.00000
     0.675000      1.00000
     0.677500      1.00000
     0.680000      1.00000
     0.682500      1.00000
     0.685000      1.00000
     0.687500     0.698900
     0.690000     0.891900
     0.692500     0.963400
     0.695000     0.998300
     0.697500     0.999900
     0.700000      1.00000
     0.702500      1.00000
     0.705000      1.00000
     0.707500      1.00000
     0.710000      1.00000
     0.712500      1.00000
     0.715000      1.00000
     0.717500      1.00000
     0.720000      1.00000
     0.722500      1.00000
     0.725000      1.00000
     0.727500      1.00000
     0.730000      1.00000
     0.732500      1.00000
     0.735000      1.00000
     0.737500      1.00000
     0.740000      1.00000
     0.742500      1.00000
     0.745000      1.00000
     0.747500      1.00000
     0.750000      1.00000
     0.752500      1.00000
     0.755000      1.00000
     0.757500      1.00000
     0.760000     0.261900
     0.762500     0.555800
     0.765000     0.673600
     0.767500     0.930600
     0.770000     0.987800
     0.772500     0.996700
     0.775000     0.999300
     0.777500      1.00000
     0.780000      1.00000
     0.782500      1.00000
     0.785000      1.00000
     0.787500      1.00000
     0.790000      1.00000
     0.792500      1.00000
     0.795000      1.00000
     0.797500      1.00000
     0.800000      1.00000
     0.802500      1.00000
     0.805000      1.00000
     0.807500      1.00000
     0.810000      1.00000
     0.812500      1.00000
     0.815000      1.00000
     0.817500      1.00000
     0.820000      1.00000
     0.822500      1.00000
     0.825000      1.00000
     0.827500      1.00000
     0.830000      1.00000
     0.832500      1.00000
     0.835000      1.00000
     0.837500      1.00000
     0.840000      1.00000
     0.842500      1.00000
     0.845000      1.00000
     0.847500      1.00000
     0.850000      1.00000
     0.852500      1.00000
     0.855000      1.00000
     0.857500      1.00000
     0.860000      1.00000
     0.862500     0.999700
     0.865000      1.00000
     0.867500     0.999800
     0.870000      1.00000
     0.872500      1.00000
     0.875000      1.00000
     0.877500      1.00000
     0.880000      1.00000
     0.882500      1.00000
     0.885000      1.00000
     0.887500      1.00000
     0.890000      1.00000
     0.892500      1.00000
     0.895000      1.00000
     0.897500      1.00000
     0.900000      1.00000
     0.902500      1.00000
     0.905000      1.00000
     0.907500      1.00000
     0.910000      1.00000
     0.912500      1.00000
     0.915000      1.00000
     0.917500      1.00000
     0.920000      1.00000
     0.922500      1.00000
     0.925000      1.00000
     0.927500      1.00000
     0.930000      1.00000
     0.932500      1.00000
     0.935000      1.00000
     0.937500      1.00000
     0.940000      1.00000
     0.942500      1.00000
     0.945000      1.00000
     0.947500      1.00000
     0.950000      1.00000
     0.952500      1.00000
     0.955000      1.00000
     0.957500      1.00000
     0.960000      1.00000
     0.962500      1.00000
     0.965000      1.00000
     0.967500      1.00000
     0.970000      1.00000
     0.972500      1.00000
     0.975000      1.00000
     0.977500      1.00000
     0.980000      1.00000
     0.982500      1.00000
     0.985000      1.00000
     0.987500      1.00000
     0.990000      1.00000
     0.992500      1.00000
     0.995000      1.00000
     0.997500      1.00000
      1.00000      1.00000
      1.00250      1.00000
      1.00500      1.00000
      1.00750      1.00000
      1.01000      1.00000
      1.01250      1.00000
      1.01500      1.00000
      1.01750      1.00000
      1.02000      1.00000
      1.02250      1.00000
      1.02500      1.00000
      1.02750      1.00000
      1.03000      1.00000
      1.03250      1.00000
      1.03500      1.00000
      1.03750      1.00000
      1.04000      1.00000
      1.04250      1.00000
      1.04500      1.00000
      1.04750      1.00000
      1.05000     0.997800
      1.05250     0.999100
      1.05500     0.999800
      1.05750     0.999900
      1.06000     0.999900
      1.06250     0.999800
      1.06500     0.999100
      1.06750     0.998200
      1.07000     0.999800
      1.07250     0.999800
      1.07500     0.999900
      1.07750      1.00000
      1.08000      1.00000
      1.08250      1.00000
      1.08500      1.00000
      1.08750      1.00000
      1.09000      1.00000
      1.09250      1.00000
      1.09500      1.00000
      1.09750      1.00000
      1.10000      1.00000
      1.10250      1.00000
      1.10500      1.00000
      1.10750      1.00000
      1.11000      1.00000
      1.11250      1.00000
      1.11500      1.00000
      1.11750      1.00000
      1.12000      1.00000
      1.12250      1.00000
      1.12500      1.00000
      1.12750      1.00000
      1.13000      1.00000
      1.13250      1.00000
      1.13500      1.00000
      1.13750      1.00000
      1.14000      1.00000
      1.14250      1.00000
      1.14500      1.00000
      1.14750      1.00000
      1.15000      1.00000
      1.15250      1.00000
      1.15500      1.00000
      1.15750      1.00000
      1.16000      1.00000
      1.16250      1.00000
      1.16500      1.00000
      1.16750      1.00000
      1.17000      1.00000
      1.17250      1.00000
      1.17500      1.00000
      1.17750      1.00000
      1.18000      1.00000
      1.18250      1.00000
      1.18500      1.00000
      1.18750      1.00000
      1.19000      1.00000
      1.19250      1.00000
      1.19500      1.00000
      1.19750      1.00000
      1.20000      1.00000
      1.20250      1.00000
      1.20500     0.991300
      1.20750     0.984700
      1.21000     0.994100
      1.21250     0.998900
      1.21500     0.999600
      1.21750      1.00000
      1.22000     0.991300
      1.22250     0.992100
      1.22500     0.995000
      1.22750     0.998600
      1.23000     0.999600
      1.23250     0.999700
      1.23500     0.999900
      1.23750      1.00000
      1.24000      1.00000
      1.24250      1.00000
      1.24500     0.999700
      1.24750     0.999200
      1.25000     0.998500
      1.25250     0.996200
      1.25500     0.992600
      1.25750     0.989400
      1.26000     0.972500
      1.26250     0.950500
      1.26500     0.930000
      1.26750     0.834000
      1.27000     0.900500
      1.27250     0.966700
      1.27500     0.971300
      1.27750     0.984600
      1.28000     0.996000
      1.28250     0.995400
      1.28500     0.997300
      1.28750     0.999900
      1.29000     0.998400
      1.29250     0.999300
      1.29500     0.999200
      1.29750     0.999700
      1.30000     0.999900
      1.30250      1.00000
      1.30500      1.00000
      1.30750      1.00000
      1.31000      1.00000
      1.31250     0.997900
      1.31500     0.995500
      1.31750     0.998400
      1.32000     0.997700
      1.32250     0.999000
      1.32500     0.999900
      1.32750      1.00000
      1.33000      1.00000
      1.33250      1.00000
      1.33500      1.00000
      1.33750     0.998500
      1.34000     0.999300
      1.34250     0.998900
      1.34500     0.999500
      1.34750     0.999800
      1.35000      1.00000
      1.35250      1.00000
      1.35500      1.00000
      1.35750      1.00000
      1.36000      1.00000
      1.36250      1.00000
      1.36500      1.00000
      1.36750      1.00000
      1.37000     0.999900
      1.37250      1.00000
      1.37500     0.999900
      1.37750      1.00000
      1.38000      1.00000
      1.38250      1.00000
      1.38500      1.00000
      1.38750      1.00000
      1.39000      1.00000
      1.39250      1.00000
      1.39500      1.00000
      1.39750      1.00000
      1.40000      1.00000
      1.40250      1.00000
      1.40500      1.00000
      1.40750      1.00000
      1.41000      1.00000
      1.41250      1.00000
      1.41500      1.00000
      1.41750      1.00000
      1.42000      1.00000
      1.42250      1.00000
      1.42500      1.00000
      1.42750      1.00000
      1.43000      1.00000
      1.43250     0.705100
      1.43500     0.883600
      1.43750     0.845800
      1.44000     0.870500
      1.44250     0.946100
      1.44500     0.959200
      1.44750     0.991700
      1.45000     0.996500
      1.45250     0.998300
      1.45500     0.999300
      1.45750     0.999800
      1.46000      1.00000
      1.46250      1.00000
      1.46500      1.00000
      1.46750      1.00000
      1.47000      1.00000
      1.47250     0.999900
      1.47500      1.00000
      1.47750      1.00000
      1.48000      1.00000
      1.48250      1.00000
      1.48500      1.00000
      1.48750      1.00000
      1.49000      1.00000
      1.49250      1.00000
      1.49500     0.999800
      1.49750     0.998800
      1.50000     0.999800
      1.50250     0.999800
      1.50500     0.999900
      1.50750      1.00000
      1.51000      1.00000
      1.51250      1.00000
      1.51500      1.00000
      1.51750      1.00000
      1.52000      1.00000
      1.52250     0.999800
      1.52500     0.998900
      1.52750     0.998600
      1.53000     0.997300
      1.53250     0.988800
      1.53500     0.978800
      1.53750     0.990700
      1.54000     0.983100
      1.54250     0.988500
      1.54500     0.994100
      1.54750     0.998900
      1.55000     0.999800
      1.55250      1.00000
      1.55500      1.00000
      1.55750      1.00000
      1.56000     0.999900
      1.56250     0.999900
      1.56500     0.998800
      1.56750     0.970700
      1.57000     0.901000
      1.57250     0.892700
      1.57500     0.950800
      1.57750     0.909000
      1.58000     0.944700
      1.58250     0.976600
      1.58500     0.994700
      1.58750     0.998600
      1.59000     0.999800
      1.59250     0.999900
      1.59500     0.999600
      1.59750     0.977400
      1.60000     0.977400
      1.60250     0.905900
      1.60500     0.918200
      1.60750     0.957100
      1.61000     0.905700
      1.61250     0.937400
      1.61500     0.972900
      1.61750     0.987600
      1.62000     0.994300
      1.62250     0.996300
      1.62500     0.995700
      1.62750     0.994000
      1.63000     0.992400
      1.63250     0.989000
      1.63500     0.985600
      1.63750     0.977800
      1.64000     0.966400
      1.64250     0.961900
      1.64500     0.961700
      1.64750     0.955600
      1.65000     0.955600
      1.65250     0.958500
      1.65500     0.969900
      1.65750     0.984300
      1.66000     0.993000
      1.66250     0.992600
      1.66500     0.899700
      1.66750     0.973200
      1.67000     0.994000
      1.67250     0.987900
      1.67500     0.987900
      1.67750     0.984500
      1.68000     0.999600
      1.68250     0.986700
      1.68500     0.980400
      1.68750     0.985100
      1.69000     0.986900
      1.69250     0.986200
      1.69500     0.989200
      1.69750     0.989200
      1.70000     0.990600
      1.70250     0.981900
      1.70500     0.980500
      1.70750     0.975700
      1.71000     0.986600
      1.71250     0.992900
      1.71500     0.992900
      1.71750     0.994400
      1.72000     0.992300
      1.72250     0.982700
      1.72500     0.980600
      1.72750     0.985700
      1.73000     0.985700
      1.73250     0.985700
      1.73500     0.990600
      1.73750     0.993400
      1.74000     0.993900
      1.74250     0.995700
      1.74500     0.995700
      1.74750     0.996200
      1.75000     0.996800
      1.75250     0.998200
      1.75500     0.998100
      1.75750     0.997900
      1.76000     0.997900
      1.76250     0.997200
      1.76500     0.994700
      1.76750     0.994300
      1.77000     0.991500
      1.77250     0.991500
      1.77500     0.987200
      1.77750     0.991600
      1.78000     0.996600
      1.78250     0.996600
      1.78500     0.993400
      1.78750     0.995400
      1.79000     0.977900
      1.79250     0.990800
      1.79500     0.990800
      1.79750     0.997700
      1.80000     0.996400
      1.80250     0.995700
      1.80500     0.995700
      1.80750     0.995800
      1.81000     0.995400
      1.81250     0.995400
      1.81500     0.999000
      1.81750     0.999000
      1.82000      1.00000
      1.82250      1.00000
      1.82500      1.00000
      1.82750      1.00000
      1.83000      1.00000
      1.83250      1.00000
      1.83500      1.00000
      1.83750      1.00000
      1.84000      1.00000
      1.84250      1.00000
      1.84500      1.00000
      1.84750      1.00000
      1.85000      1.00000
      1.85250      1.00000
      1.85500      1.00000
      1.85750      1.00000
      1.86000      1.00000
      1.86250      1.00000
      1.86500      1.00000
      1.86750      1.00000
      1.87000     0.999900
      1.87250     0.999900
      1.87500     0.995700
      1.87750     0.994400
      1.88000     0.988100
      1.88250     0.988100
      1.88500     0.997500
      1.88750     0.999000
      1.89000     0.999000
      1.89250     0.999500
      1.89500     0.999900
      1.89750     0.999900
      1.90000     0.999700
      1.90250     0.999800
      1.90500     0.999600
      1.90750     0.999600
      1.91000     0.999700
      1.91250     0.999800
      1.91500     0.999800
      1.91750     0.999900
      1.92000     0.999800
      1.92250     0.999800
      1.92500     0.999900
      1.92750      1.00000
      1.93000      1.00000
      1.93250     0.999900
      1.93500     0.998100
      1.93750     0.998100
      1.94000     0.983700
      1.94250     0.906400
      1.94500     0.906400
      1.94750     0.797000
      1.95000     0.632800
      1.95250     0.632800
      1.95500     0.422400
      1.95750     0.513600
      1.96000     0.513600
      1.96250     0.626800
      1.96500     0.547300
      1.96750     0.547300
      1.97000     0.667400
      1.97250     0.859400
      1.97500     0.859400
      1.97750     0.951000
      1.98000     0.951000
      1.98250     0.989900
      1.98500     0.996100
      1.98750     0.996100
      1.99000     0.998500
      1.99250     0.974800
      1.99500     0.974800
      1.99750     0.616100