Wavelength (micrometer) Transmission (upwelling and downwelling for nadir view and sun at zenith)
     0.400000      1.00000
     0.402500      1.00000
     0.405000      1.00000
     0.407500      1.00000
     0.410000      1.00000
     0.412500      1.00000
     0.415000      1.00000
     0.417500      1.00000
     0.420000      1.00000
     0.422500      1.00000
     0.425000      1.00000
     0.427500     0.999800
     0.430000     0.999600
     0.432500     0.999400
     0.435000     0.999100
     0.437500     0.998900
     0.440000     0.998700
     0.442500     0.998500
     0.445000     0.998300
     0.447500     0.998100
     0.450000     0.998100
     0.452500     0.997900
     0.455000     0.997600
     0.457500     0.996800
     0.460000     0.995900
     0.462500     0.995100
     0.465000     0.995600
     0.467500     0.996300
     0.470000     0.995800
     0.472500     0.995000
     0.475000     0.993600
     0.477500     0.992200
     0.480000     0.990600
     0.482500     0.989500
     0.485000     0.988800
     0.487500     0.988900
     0.490000     0.989200
     0.492500     0.988400
     0.495000     0.987600
     0.497500     0.985000
     0.500000     0.982500
     0.502500     0.980000
     0.505000     0.977400
     0.507500     0.977200
     0.510000     0.977100
     0.512500     0.976600
     0.515000     0.976100
     0.517500     0.974400
     0.520000     0.972400
     0.522500     0.970400
     0.525000     0.968300
     0.527500     0.966000
     0.530000     0.963300
     0.532500     0.961000
     0.535000     0.959800
     0.537500     0.958600
     0.540000     0.957300
     0.542500     0.956100
     0.545000     0.954600
     0.547500     0.952900
     0.550000     0.951100
     0.552500     0.948800
     0.555000     0.946600
     0.557500     0.944200
     0.560000     0.941800
     0.562500     0.939500
     0.565000     0.937300
     0.567500     0.935100
     0.570000     0.933600
     0.572500     0.932300
     0.575000     0.931200
     0.577500     0.931900
     0.580000     0.932500
     0.582500     0.933300
     0.585000     0.934300
     0.587500     0.935300
     0.590000     0.935500
     0.592500     0.935300
     0.595000     0.935100
     0.597500     0.932200
     0.600000     0.929100
     0.602500     0.926200
     0.605000     0.927700
     0.607500     0.929200
     0.610000     0.930800
     0.612500     0.932900
     0.615000     0.934900
     0.617500     0.936900
     0.620000     0.938500
     0.622500     0.940200
     0.625000     0.941800
     0.627500     0.943300
     0.630000     0.944875
     0.632500     0.946309
     0.635000     0.948900
     0.637500     0.951600
     0.640000     0.954300
     0.642500     0.956500
     0.645000     0.958300
     0.647500     0.960200
     0.650000     0.961900
     0.652500     0.963400
     0.655000     0.964900
     0.657500     0.966400
     0.660000     0.967800
     0.662500     0.969300
     0.665000     0.970800
     0.667500     0.972300
     0.670000     0.973800
     0.672500     0.975300
     0.675000     0.976800
     0.677500     0.978100
     0.680000     0.979400
     0.682500     0.980600
     0.685000     0.981800
     0.687500     0.982687
     0.690000     0.983743
     0.692500     0.984638
     0.695000     0.985575
     0.697500     0.986299
     0.700000     0.986900
     0.702500     0.987600
     0.705000     0.988200
     0.707500     0.988600
     0.710000     0.989100
     0.712500     0.989500
     0.715000     0.990000
     0.717500     0.990600
     0.720000     0.991300
     0.722500     0.991900
     0.725000     0.992500
     0.727500     0.992700
     0.730000     0.992900
     0.732500     0.993200
     0.735000     0.993400
     0.737500     0.993500
     0.740000     0.993500
     0.742500     0.993500
     0.745000     0.993600
     0.747500     0.993800
     0.750000     0.994100
     0.752500     0.994500
     0.755000     0.994900
     0.757500     0.995200
     0.760000     0.995800
     0.762500     0.996042
     0.765000     0.996585
     0.767500     0.996991
     0.770000      1.00000
     0.772500      1.00000
     0.775000      1.00000
     0.777500      1.00000
     0.780000      1.00000
     0.782500      1.00000
     0.785000      1.00000
     0.787500      1.00000
     0.790000      1.00000
     0.792500      1.00000
     0.795000      1.00000
     0.797500      1.00000
     0.800000      1.00000
     0.802500      1.00000
     0.805000      1.00000
     0.807500      1.00000
     0.810000      1.00000
     0.812500      1.00000
     0.815000      1.00000
     0.817500      1.00000
     0.820000      1.00000
     0.822500      1.00000
     0.825000      1.00000
     0.827500      1.00000
     0.830000      1.00000
     0.832500      1.00000
     0.835000      1.00000
     0.837500      1.00000
     0.840000      1.00000
     0.842500      1.00000
     0.845000      1.00000
     0.847500      1.00000
     0.850000      1.00000
     0.852500      1.00000
     0.855000      1.00000
     0.857500      1.00000
     0.860000      1.00000
     0.862500      1.00000
     0.865000      1.00000
     0.867500      1.00000
     0.870000      1.00000
     0.872500      1.00000
     0.875000      1.00000
     0.877500      1.00000
     0.880000      1.00000
     0.882500      1.00000
     0.885000      1.00000
     0.887500      1.00000
     0.890000      1.00000
     0.892500      1.00000
     0.895000      1.00000
     0.897500      1.00000
     0.900000      1.00000
     0.902500      1.00000
     0.905000      1.00000
     0.907500      1.00000
     0.910000      1.00000
     0.912500      1.00000
     0.915000      1.00000
     0.917500      1.00000
     0.920000      1.00000
     0.922500      1.00000
     0.925000      1.00000
     0.927500      1.00000
     0.930000      1.00000
     0.932500      1.00000
     0.935000      1.00000
     0.937500      1.00000
     0.940000      1.00000
     0.942500      1.00000
     0.945000      1.00000
     0.947500      1.00000
     0.950000      1.00000
     0.952500      1.00000
     0.955000      1.00000
     0.957500      1.00000
     0.960000      1.00000
     0.962500      1.00000
     0.965000      1.00000
     0.967500      1.00000
     0.970000      1.00000
     0.972500      1.00000
     0.975000      1.00000
     0.977500      1.00000
     0.980000      1.00000
     0.982500      1.00000
     0.985000      1.00000
     0.987500      1.00000
     0.990000      1.00000
     0.992500      1.00000
     0.995000      1.00000
     0.997500      1.00000
      1.00000      1.00000
      1.00250      1.00000
      1.00500      1.00000
      1.00750      1.00000
      1.01000      1.00000
      1.01250      1.00000
      1.01500      1.00000
      1.01750      1.00000
      1.02000      1.00000
      1.02250      1.00000
      1.02500      1.00000
      1.02750      1.00000
      1.03000      1.00000
      1.03250      1.00000
      1.03500      1.00000
      1.03750      1.00000
      1.04000      1.00000
      1.04250      1.00000
      1.04500      1.00000
      1.04750      1.00000
      1.05000      1.00000
      1.05250      1.00000
      1.05500      1.00000
      1.05750      1.00000
      1.06000      1.00000
      1.06250      1.00000
      1.06500      1.00000
      1.06750      1.00000
      1.07000      1.00000
      1.07250      1.00000
      1.07500      1.00000
      1.07750      1.00000
      1.08000      1.00000
      1.08250      1.00000
      1.08500      1.00000
      1.08750      1.00000
      1.09000      1.00000
      1.09250      1.00000
      1.09500      1.00000
      1.09750      1.00000
      1.10000      1.00000
      1.10250      1.00000
      1.10500      1.00000
      1.10750      1.00000
      1.11000      1.00000
      1.11250      1.00000
      1.11500      1.00000
      1.11750      1.00000
      1.12000      1.00000
      1.12250      1.00000
      1.12500      1.00000
      1.12750      1.00000
      1.13000      1.00000
      1.13250      1.00000
      1.13500      1.00000
      1.13750      1.00000
      1.14000      1.00000
      1.14250      1.00000
      1.14500      1.00000
      1.14750      1.00000
      1.15000      1.00000
      1.15250      1.00000
      1.15500      1.00000
      1.15750      1.00000
      1.16000      1.00000
      1.16250      1.00000
      1.16500      1.00000
      1.16750      1.00000
      1.17000      1.00000
      1.17250      1.00000
      1.17500      1.00000
      1.17750      1.00000
      1.18000      1.00000
      1.18250      1.00000
      1.18500      1.00000
      1.18750      1.00000
      1.19000      1.00000
      1.19250      1.00000
      1.19500      1.00000
      1.19750      1.00000
      1.20000      1.00000
      1.20250      1.00000
      1.20500      1.00000
      1.20750      1.00000
      1.21000      1.00000
      1.21250      1.00000
      1.21500      1.00000
      1.21750      1.00000
      1.22000      1.00000
      1.22250      1.00000
      1.22500      1.00000
      1.22750      1.00000
      1.23000      1.00000
      1.23250      1.00000
      1.23500      1.00000
      1.23750      1.00000
      1.24000      1.00000
      1.24250      1.00000
      1.24500      1.00000
      1.24750      1.00000
      1.25000      1.00000
      1.25250      1.00000
      1.25500      1.00000
      1.25750      1.00000
      1.26000      1.00000
      1.26250      1.00000
      1.26500      1.00000
      1.26750      1.00000
      1.27000      1.00000
      1.27250      1.00000
      1.27500      1.00000
      1.27750      1.00000
      1.28000      1.00000
      1.28250      1.00000
      1.28500      1.00000
      1.28750      1.00000
      1.29000      1.00000
      1.29250      1.00000
      1.29500      1.00000
      1.29750      1.00000
      1.30000      1.00000
      1.30250      1.00000
      1.30500      1.00000
      1.30750      1.00000
      1.31000      1.00000
      1.31250      1.00000
      1.31500      1.00000
      1.31750      1.00000
      1.32000      1.00000
      1.32250      1.00000
      1.32500      1.00000
      1.32750      1.00000
      1.33000      1.00000
      1.33250      1.00000
      1.33500      1.00000
      1.33750      1.00000
      1.34000      1.00000
      1.34250      1.00000
      1.34500      1.00000
      1.34750      1.00000
      1.35000      1.00000
      1.35250      1.00000
      1.35500      1.00000
      1.35750      1.00000
      1.36000      1.00000
      1.36250      1.00000
      1.36500      1.00000
      1.36750      1.00000
      1.37000      1.00000
      1.37250      1.00000
      1.37500      1.00000
      1.37750      1.00000
      1.38000      1.00000
      1.38250      1.00000
      1.38500      1.00000
      1.38750      1.00000
      1.39000      1.00000
      1.39250      1.00000
      1.39500      1.00000
      1.39750      1.00000
      1.40000      1.00000
      1.40250      1.00000
      1.40500      1.00000
      1.40750      1.00000
      1.41000      1.00000
      1.41250      1.00000
      1.41500      1.00000
      1.41750      1.00000
      1.42000      1.00000
      1.42250      1.00000
      1.42500      1.00000
      1.42750      1.00000
      1.43000      1.00000
      1.43250      1.00000
      1.43500      1.00000
      1.43750      1.00000
      1.44000      1.00000
      1.44250      1.00000
      1.44500      1.00000
      1.44750      1.00000
      1.45000      1.00000
      1.45250      1.00000
      1.45500      1.00000
      1.45750      1.00000
      1.46000      1.00000
      1.46250      1.00000
      1.46500      1.00000
      1.46750      1.00000
      1.47000      1.00000
      1.47250      1.00000
      1.47500      1.00000
      1.47750      1.00000
      1.48000      1.00000
      1.48250      1.00000
      1.48500      1.00000
      1.48750      1.00000
      1.49000      1.00000
      1.49250      1.00000
      1.49500      1.00000
      1.49750      1.00000
      1.50000      1.00000
      1.50250      1.00000
      1.50500      1.00000
      1.50750      1.00000
      1.51000      1.00000
      1.51250      1.00000
      1.51500      1.00000
      1.51750      1.00000
      1.52000      1.00000
      1.52250      1.00000
      1.52500      1.00000
      1.52750      1.00000
      1.53000      1.00000
      1.53250      1.00000
      1.53500      1.00000
      1.53750      1.00000
      1.54000      1.00000
      1.54250      1.00000
      1.54500      1.00000
      1.54750      1.00000
      1.55000      1.00000
      1.55250      1.00000
      1.55500      1.00000
      1.55750      1.00000
      1.56000      1.00000
      1.56250      1.00000
      1.56500      1.00000
      1.56750      1.00000
      1.57000      1.00000
      1.57250      1.00000
      1.57500      1.00000
      1.57750      1.00000
      1.58000      1.00000
      1.58250      1.00000
      1.58500      1.00000
      1.58750      1.00000
      1.59000      1.00000
      1.59250      1.00000
      1.59500      1.00000
      1.59750      1.00000
      1.60000      1.00000
      1.60250      1.00000
      1.60500      1.00000
      1.60750      1.00000
      1.61000      1.00000
      1.61250      1.00000
      1.61500      1.00000
      1.61750      1.00000
      1.62000      1.00000
      1.62250      1.00000
      1.62500      1.00000
      1.62750      1.00000
      1.63000      1.00000
      1.63250      1.00000
      1.63500      1.00000
      1.63750      1.00000
      1.64000      1.00000
      1.64250      1.00000
      1.64500      1.00000
      1.64750      1.00000
      1.65000      1.00000
      1.65250      1.00000
      1.65500      1.00000
      1.65750      1.00000
      1.66000      1.00000
      1.66250      1.00000
      1.66500      1.00000
      1.66750      1.00000
      1.67000      1.00000
      1.67250      1.00000
      1.67500      1.00000
      1.67750      1.00000
      1.68000      1.00000
      1.68250      1.00000
      1.68500      1.00000
      1.68750      1.00000
      1.69000      1.00000
      1.69250      1.00000
      1.69500      1.00000
      1.69750      1.00000
      1.70000      1.00000
      1.70250      1.00000
      1.70500      1.00000
      1.70750      1.00000
      1.71000      1.00000
      1.71250      1.00000
      1.71500      1.00000
      1.71750      1.00000
      1.72000      1.00000
      1.72250      1.00000
      1.72500      1.00000
      1.72750      1.00000
      1.73000      1.00000
      1.73250      1.00000
      1.73500      1.00000
      1.73750      1.00000
      1.74000      1.00000
      1.74250      1.00000
      1.74500      1.00000
      1.74750      1.00000
      1.75000      1.00000
      1.75250      1.00000
      1.75500      1.00000
      1.75750      1.00000
      1.76000      1.00000
      1.76250      1.00000
      1.76500      1.00000
      1.76750      1.00000
      1.77000      1.00000
      1.77250      1.00000
      1.77500      1.00000
      1.77750      1.00000
      1.78000      1.00000
      1.78250      1.00000
      1.78500      1.00000
      1.78750      1.00000
      1.79000      1.00000
      1.79250      1.00000
      1.79500      1.00000
      1.79750      1.00000
      1.80000      1.00000
      1.80250      1.00000
      1.80500      1.00000
      1.80750      1.00000
      1.81000      1.00000
      1.81250      1.00000
      1.81500      1.00000
      1.81750      1.00000
      1.82000      1.00000
      1.82250      1.00000
      1.82500      1.00000
      1.82750      1.00000
      1.83000      1.00000
      1.83250      1.00000
      1.83500      1.00000
      1.83750      1.00000
      1.84000      1.00000
      1.84250      1.00000
      1.84500      1.00000
      1.84750      1.00000
      1.85000      1.00000
      1.85250      1.00000
      1.85500      1.00000
      1.85750      1.00000
      1.86000      1.00000
      1.86250      1.00000
      1.86500      1.00000
      1.86750      1.00000
      1.87000      1.00000
      1.87250      1.00000
      1.87500      1.00000
      1.87750      1.00000
      1.88000      1.00000
      1.88250      1.00000
      1.88500      1.00000
      1.88750      1.00000
      1.89000      1.00000
      1.89250      1.00000
      1.89500      1.00000
      1.89750      1.00000
      1.90000      1.00000
      1.90250      1.00000
      1.90500      1.00000
      1.90750      1.00000
      1.91000      1.00000
      1.91250      1.00000
      1.91500      1.00000
      1.91750      1.00000
      1.92000      1.00000
      1.92250      1.00000
      1.92500      1.00000
      1.92750      1.00000
      1.93000      1.00000
      1.93250      1.00000
      1.93500      1.00000
      1.93750      1.00000
      1.94000      1.00000
      1.94250      1.00000
      1.94500      1.00000
      1.94750      1.00000
      1.95000      1.00000
      1.95250      1.00000
      1.95500      1.00000
      1.95750      1.00000
      1.96000      1.00000
      1.96250      1.00000
      1.96500      1.00000
      1.96750      1.00000
      1.97000      1.00000
      1.97250      1.00000
      1.97500      1.00000
      1.97750      1.00000
      1.98000      1.00000
      1.98250      1.00000
      1.98500      1.00000
      1.98750      1.00000
      1.99000      1.00000
      1.99250      1.00000
      1.99500      1.00000
      1.99750      1.00000