Wavelength (micrometer) Transmission (upwelling and downwelling for nadir view and sun at zenith)
     0.400000      1.00000
     0.402500      1.00000
     0.405000      1.00000
     0.407500      1.00000
     0.410000      1.00000
     0.412500      1.00000
     0.415000      1.00000
     0.417500      1.00000
     0.420000      1.00000
     0.422500      1.00000
     0.425000      1.00000
     0.427500      1.00000
     0.430000      1.00000
     0.432500      1.00000
     0.435000      1.00000
     0.437500      1.00000
     0.440000      1.00000
     0.442500      1.00000
     0.445000      1.00000
     0.447500      1.00000
     0.450000      1.00000
     0.452500      1.00000
     0.455000      1.00000
     0.457500      1.00000
     0.460000      1.00000
     0.462500      1.00000
     0.465000      1.00000
     0.467500      1.00000
     0.470000      1.00000
     0.472500      1.00000
     0.475000      1.00000
     0.477500      1.00000
     0.480000      1.00000
     0.482500      1.00000
     0.485000      1.00000
     0.487500      1.00000
     0.490000      1.00000
     0.492500      1.00000
     0.495000      1.00000
     0.497500      1.00000
     0.500000      1.00000
     0.502500      1.00000
     0.505000      1.00000
     0.507500      1.00000
     0.510000      1.00000
     0.512500      1.00000
     0.515000      1.00000
     0.517500      1.00000
     0.520000      1.00000
     0.522500      1.00000
     0.525000      1.00000
     0.527500      1.00000
     0.530000      1.00000
     0.532500      1.00000
     0.535000      1.00000
     0.537500      1.00000
     0.540000      1.00000
     0.542500      1.00000
     0.545000      1.00000
     0.547500      1.00000
     0.550000      1.00000
     0.552500      1.00000
     0.555000      1.00000
     0.557500      1.00000
     0.560000      1.00000
     0.562500      1.00000
     0.565000      1.00000
     0.567500      1.00000
     0.570000     0.977300
     0.572500     0.996300
     0.575000     0.989900
     0.577500     0.994900
     0.580000     0.998700
     0.582500     0.999300
     0.585000     0.998800
     0.587500     0.985400
     0.590000     0.885500
     0.592500     0.922800
     0.595000     0.943100
     0.597500     0.978700
     0.600000      1.00000
     0.602500      1.00000
     0.605000      1.00000
     0.607500      1.00000
     0.610000      1.00000
     0.612500      1.00000
     0.615000      1.00000
     0.617500      1.00000
     0.620000      1.00000
     0.622500      1.00000
     0.625000      1.00000
     0.627500     0.989600
     0.630000     0.990915
     0.632500     0.986978
     0.635000     0.994900
     0.637500     0.997200
     0.640000     0.999500
     0.642500     0.996700
     0.645000     0.992000
     0.647500     0.960000
     0.650000     0.985800
     0.652500     0.969300
     0.655000     0.967100
     0.657500     0.967900
     0.660000     0.996700
     0.662500     0.997800
     0.665000      1.00000
     0.667500      1.00000
     0.670000      1.00000
     0.672500      1.00000
     0.675000      1.00000
     0.677500      1.00000
     0.680000     0.999600
     0.682500     0.999000
     0.685000     0.999100
     0.687500      1.00000
     0.690000     0.998991
     0.692500     0.982977
     0.695000     0.854152
     0.697500     0.983798
     0.700000     0.924600
     0.702500     0.952000
     0.705000     0.977200
     0.707500     0.969100
     0.710000     0.975000
     0.712500     0.986300
     0.715000     0.948700
     0.717500     0.732100
     0.720000     0.649000
     0.722500     0.972100
     0.725000     0.802200
     0.727500     0.760400
     0.730000     0.848400
     0.732500     0.895100
     0.735000     0.912400
     0.737500     0.965900
     0.740000     0.952700
     0.742500     0.982900
     0.745000     0.998900
     0.747500     0.999700
     0.750000      1.00000
     0.752500      1.00000
     0.755000      1.00000
     0.757500      1.00000
     0.760000      1.00000
     0.762500      1.00000
     0.765000      1.00000
     0.767500      1.00000
     0.770000      1.00000
     0.772500      1.00000
     0.775000     0.999900
     0.777500     0.999900
     0.780000     0.999800
     0.782500      1.00000
     0.785000     0.997900
     0.787500     0.971400
     0.790000     0.947100
     0.792500     0.977500
     0.795000     0.976000
     0.797500     0.983400
     0.800000     0.987300
     0.802500     0.979100
     0.805000     0.959900
     0.807500     0.988900
     0.810000     0.978500
     0.812500     0.894800
     0.815000     0.735400
     0.817500     0.763200
     0.820000     0.773900
     0.822500     0.646200
     0.825000     0.854200
     0.827500     0.790100
     0.830000     0.895300
     0.832500     0.784500
     0.835000     0.948500
     0.837500     0.952700
     0.840000     0.961700
     0.842500     0.995100
     0.845000     0.990100
     0.847500     0.994900
     0.850000     0.991600
     0.852500     0.987400
     0.855000     0.995700
     0.857500     0.993700
     0.860000      1.00000
     0.862500      1.00000
     0.865000      1.00000
     0.867500      1.00000
     0.870000      1.00000
     0.872500      1.00000
     0.875000     0.999500
     0.877500     0.999500
     0.880000     0.998600
     0.882500     0.992700
     0.885000     0.995600
     0.887500     0.996900
     0.890000     0.979700
     0.892500     0.988900
     0.895000     0.863400
     0.897500     0.709700
     0.900000     0.676000
     0.902500     0.612900
     0.905000     0.832800
     0.907500     0.617000
     0.910000     0.713400
     0.912500     0.695500
     0.915000     0.599900
     0.917500     0.532100
     0.920000     0.959700
     0.922500     0.743500
     0.925000     0.766400
     0.927500     0.810000
     0.930000     0.432500
     0.932500     0.212100
     0.935000     0.202300
     0.937500     0.175500
     0.940000     0.481400
     0.942500     0.399100
     0.945000    0.0993000
     0.947500     0.301300
     0.950000     0.125300
     0.952500     0.276500
     0.955000     0.284600
     0.957500     0.456600
     0.960000     0.473600
     0.962500     0.506900
     0.965000     0.452000
     0.967500     0.771000
     0.970000     0.761000
     0.972500     0.794000
     0.975000     0.781100
     0.977500     0.808100
     0.980000     0.770800
     0.982500     0.831900
     0.985000     0.845500
     0.987500     0.927200
     0.990000     0.973100
     0.992500     0.965300
     0.995000     0.995700
     0.997500     0.988800
      1.00000     0.990700
      1.00250     0.978400
      1.00500     0.991700
      1.00750     0.984900
      1.01000     0.972300
      1.01250     0.990100
      1.01500     0.992400
      1.01750     0.995300
      1.02000     0.987100
      1.02250     0.993500
      1.02500     0.997500
      1.02750     0.990000
      1.03000     0.998700
      1.03250      1.00000
      1.03500      1.00000
      1.03750      1.00000
      1.04000     0.999800
      1.04250      1.00000
      1.04500      1.00000
      1.04750      1.00000
      1.05000      1.00000
      1.05250      1.00000
      1.05500     0.999700
      1.05750     0.999700
      1.06000     0.999800
      1.06250     0.998200
      1.06500     0.996897
      1.06750     0.993989
      1.07000     0.987998
      1.07250     0.978896
      1.07500     0.955696
      1.07750     0.938200
      1.08000     0.937200
      1.08250     0.997500
      1.08500     0.958300
      1.08750     0.947200
      1.09000     0.890900
      1.09250     0.828700
      1.09500     0.855000
      1.09750     0.970100
      1.10000     0.898300
      1.10250     0.885500
      1.10500     0.820900
      1.10750     0.661500
      1.11000     0.627700
      1.11250     0.424900
      1.11500     0.353400
      1.11750     0.369100
      1.12000     0.224500
      1.12250     0.133300
      1.12500     0.124400
      1.12750     0.176300
      1.13000     0.494300
      1.13250     0.615800
      1.13500    0.0117000
      1.13750     0.572200
      1.14000     0.504000
      1.14250     0.549000
      1.14500     0.142000
      1.14750     0.270600
      1.15000     0.253700
      1.15250     0.288300
      1.15500     0.480800
      1.15750     0.468200
      1.16000     0.520800
      1.16250     0.568500
      1.16500     0.693600
      1.16750     0.787900
      1.17000     0.820700
      1.17250     0.709700
      1.17500     0.605600
      1.17750     0.696300
      1.18000     0.801600
      1.18250     0.735300
      1.18500     0.824800
      1.18750     0.849600
      1.19000     0.826900
      1.19250     0.946900
      1.19500     0.882600
      1.19750     0.901800
      1.20000     0.813800
      1.20250     0.909400
      1.20500     0.856552
      1.20750     0.849294
      1.21000     0.899306
      1.21250     0.942937
      1.21500     0.863445
      1.21750     0.913300
      1.22000     0.970746
      1.22250     0.978127
      1.22500     0.978191
      1.22750     0.981474
      1.23000     0.991397
      1.23250     0.989397
      1.23500     0.993599
      1.23750     0.985000
      1.24000     0.993900
      1.24250     0.999900
      1.24500     0.999900
      1.24750     0.995897
      1.25000     0.999700
      1.25250     0.998595
      1.25500     0.996877
      1.25750     0.998787
      1.26000     0.993933
      1.26250     0.999369
      1.26500     0.998280
      1.26750     0.993645
      1.27000     0.998445
      1.27250     0.988414
      1.27500     0.998559
      1.27750     0.999391
      1.28000     0.975000
      1.28250     0.993671
      1.28500     0.978943
      1.28750     0.964597
      1.29000     0.943109
      1.29250     0.955369
      1.29500     0.943955
      1.29750     0.886766
      1.30000     0.882588
      1.30250     0.765500
      1.30500     0.770000
      1.30750     0.814900
      1.31000     0.688900
      1.31250     0.666900
      1.31500     0.668810
      1.31750     0.758614
      1.32000     0.588053
      1.32250     0.652352
      1.32500     0.775678
      1.32750     0.651700
      1.33000     0.393400
      1.33250     0.439200
      1.33500     0.512700
      1.33750     0.610616
      1.34000     0.469529
      1.34250     0.263990
      1.34500     0.185093
      1.34750     0.119424
      1.35000    0.0342000
      1.35250   0.00780000
      1.35500   0.00240000
      1.35750  0.000300000
      1.36000   0.00150000
      1.36250  0.000400000
      1.36500      0.00000
      1.36750   0.00140000
      1.37000  0.000300030
      1.37250   0.00420000
      1.37500    0.0231023
      1.37750   0.00840000
      1.38000  0.000300000
      1.38250      0.00000
      1.38500   0.00690000
      1.38750   0.00130000
      1.39000    0.0294000
      1.39250  0.000400000
      1.39500      0.00000
      1.39750     0.183300
      1.40000    0.0126000
      1.40250  0.000600000
      1.40500   0.00160000
      1.40750   0.00670000
      1.41000   0.00320000
      1.41250    0.0127000
      1.41500    0.0713000
      1.41750    0.0696000
      1.42000    0.0121000
      1.42250    0.0163000
      1.42500    0.0796000
      1.42750    0.0467000
      1.43000     0.105200
      1.43250    0.0577223
      1.43500     0.141467
      1.43750    0.0735398
      1.44000    0.0775416
      1.44250    0.0536941
      1.44500     0.228420
      1.44750     0.387416
      1.45000    0.0323131
      1.45250     0.293799
      1.45500     0.226459
      1.45750     0.479996
      1.46000     0.251500
      1.46250     0.305700
      1.46500     0.227600
      1.46750     0.203300
      1.47000     0.265800
      1.47250    0.0623062
      1.47500     0.182500
      1.47750     0.382300
      1.48000     0.247000
      1.48250     0.295700
      1.48500     0.476000
      1.48750     0.368500
      1.49000     0.468800
      1.49250     0.492400
      1.49500     0.586417
      1.49750     0.772527
      1.50000     0.881876
      1.50250     0.744149
      1.50500     0.797180
      1.50750     0.880800
      1.51000     0.973400
      1.51250     0.885400
      1.51500     0.814400
      1.51750     0.850500
      1.52000     0.907200
      1.52250     0.976495
      1.52500     0.889278
      1.52750     0.919287
      1.53000     0.927504
      1.53250     0.994438
      1.53500     0.967103
      1.53750     0.980620
      1.54000     0.987285
      1.54250     0.981993
      1.54500     0.985213
      1.54750     0.987086
      1.55000     0.998400
      1.55250     0.987900
      1.55500     0.995500
      1.55750     0.997000
      1.56000     0.997700
      1.56250     0.991799
      1.56500     0.995595
      1.56750     0.998558
      1.57000     0.997558
      1.57250     0.997984
      1.57500     0.997371
      1.57750     0.996920
      1.58000     0.998730
      1.58250     0.996723
      1.58500     0.990650
      1.58750     0.999399
      1.59000     0.993199
      1.59250     0.997600
      1.59500     0.999100
      1.59750     0.998261
      1.60000     0.998261
      1.60250      1.00000
      1.60500     0.999455
      1.60750     0.999373
      1.61000     0.997792
      1.61250     0.997440
      1.61500     0.999075
      1.61750     0.997570
      1.62000     0.998994
      1.62250     0.999699
      1.62500     0.997891
      1.62750     0.999899
      1.63000     0.999698
      1.63250     0.995248
      1.63500     0.998985
      1.63750     0.999080
      1.64000     0.997930
      1.64250     0.998545
      1.64500     0.993033
      1.64750     0.997802
      1.65000     0.997802
      1.65250     0.997705
      1.65500     0.997113
      1.65750     0.994311
      1.66000     0.998288
      1.66250     0.992243
      1.66500     0.990219
      1.66750     0.990752
      1.67000     0.995473
      1.67250     0.991902
      1.67500     0.991902
      1.67750     0.981006
      1.68000     0.987495
      1.68250     0.996351
      1.68500     0.978784
      1.68750     0.990661
      1.69000     0.939609
      1.69250     0.985500
      1.69500     0.929539
      1.69750     0.929539
      1.70000     0.979709
      1.70250     0.949384
      1.70500     0.976951
      1.70750     0.882136
      1.71000     0.979728
      1.71250     0.896767
      1.71500     0.896767
      1.71750     0.945595
      1.72000     0.991535
      1.72250     0.823140
      1.72500     0.859678
      1.72750     0.920361
      1.73000     0.920361
      1.73250     0.821244
      1.73500     0.925702
      1.73750     0.823334
      1.74000     0.771506
      1.74250     0.877071
      1.74500     0.877071
      1.74750     0.681088
      1.75000     0.960072
      1.75250     0.821879
      1.75500     0.621681
      1.75750     0.976551
      1.76000     0.976551
      1.76250     0.693241
      1.76500     0.524379
      1.76750     0.761440
      1.77000     0.744428
      1.77250     0.744428
      1.77500     0.597853
      1.77750     0.439492
      1.78000     0.537528
      1.78250     0.537528
      1.78500     0.354238
      1.78750     0.395620
      1.79000     0.495756
      1.79250     0.225474
      1.79500     0.225474
      1.79750     0.345996
      1.80000    0.0827981
      1.80250     0.153159
      1.80500     0.153159
      1.80750    0.0589476
      1.81000    0.0762508
      1.81250    0.0623870
      1.81500    0.0215215
      1.81750    0.0215215
      1.82000   0.00270000
      1.82250    0.0291000
      1.82500   0.00310000
      1.82750   0.00310000
      1.83000  0.000200000
      1.83250    0.0396000
      1.83500      0.00000
      1.83750      0.00000
      1.84000   0.00100000
      1.84250   0.00250000
      1.84500   0.00250000
      1.84750      0.00000
      1.85000   0.00200000
      1.85250   0.00150000
      1.85500   0.00150000
      1.85750   0.00360000
      1.86000  0.000200000
      1.86250   0.00290000
      1.86500   0.00290000
      1.86750  1.00000e-04
      1.87000      0.00000
      1.87250      0.00000
      1.87500      0.00000
      1.87750   0.00140788
      1.88000    0.0452383
      1.88250    0.0452383
      1.88500    0.0109273
      1.88750   0.00400400
      1.89000   0.00400400
      1.89250   0.00680340
      1.89500     0.240824
      1.89750     0.240824
      1.90000  0.000100030
      1.90250   0.00870174
      1.90500  0.000200080
      1.90750  0.000200080
      1.91000   0.00400120
      1.91250   0.00150030
      1.91500   0.00150030
      1.91750    0.0294029
      1.92000  0.000100020
      1.92250  0.000100020
      1.92500    0.0169017
      1.92750   0.00230000
      1.93000   0.00230000
      1.93250    0.0127013
      1.93500     0.104398
      1.93750     0.104398
      1.94000   0.00711599
      1.94250    0.0788835
      1.94500    0.0788835
      1.94750     0.134504
      1.95000     0.269437
      1.95250     0.269437
      1.95500     0.163589
      1.95750     0.213590
      1.96000     0.213590
      1.96250     0.214742
      1.96500     0.453682
      1.96750     0.453682
      1.97000     0.536560
      1.97250     0.481266
      1.97500     0.481266
      1.97750     0.559621
      1.98000     0.559621
      1.98250     0.622588
      1.98500     0.615099
      1.98750     0.615099
      1.99000     0.604707
      1.99250     0.712864
      1.99500     0.712864
      1.99750     0.747281