Wavelength (micrometer) Transmission (upwelling and downwelling for nadir view and sun at zenith)
400;1
402.5;1
405;1
407.5;1
410;1
412.5;1
415;1
417.5;1
420;1
422.5;1
425;1
427.5;1
430;1
432.5;1
435;1
437.5;1
440;1
442.5;1
445;1
447.5;1
450;1
452.5;1
455;1
457.5;1
460;1
462.5;1
465;1
467.5;1
470;1
472.5;1
475;1
477.5;1
480;1
482.5;1
485;1
487.5;1
490;1
492.5;1
495;1
497.5;1
500;1
502.5;1
505;1
507.5;1
510;1
512.5;1
515;1
517.5;1
520;1
522.5;1
525;1
527.5;1
530;1
532.5;1
535;1
537.5;1
540;1
542.5;1
545;1
547.5;1
550;1
552.5;1
555;1
557.5;1
560;1
562.5;1
565;1
567.5;1
570;0.9773
572.5;0.9963
575;0.9899
577.5;0.9949
580;0.9987
582.5;0.9993
585;0.9988
587.5;0.9854
590;0.8855
592.5;0.9228
595;0.9431
597.5;0.9787
600;1
602.5;1
605;1
607.5;1
610;1
612.5;1
615;1
617.5;1
620;1
622.5;1
625;1
627.5;0.9896
630;0.990915
632.5;0.986978
635;0.9949
637.5;0.9972
640;0.9995
642.5;0.9967
645;0.992
647.5;0.96
650;0.9858
652.5;0.9693
655;0.9671
657.5;0.9679
660;0.9967
662.5;0.9978
665;1
667.5;1
670;1
672.5;1
675;1
677.5;1
680;0.9996
682.5;0.999
685;0.9991
687.5;1
690;0.998991
692.5;0.982977
695;0.854152
697.5;0.983798
700;0.9246
702.5;0.952
705;0.9772
707.5;0.9691
710;0.975
712.5;0.9863
715;0.9487
717.5;0.7321
720;0.649
722.5;0.9721
725;0.8022
727.5;0.7604
730;0.8484
732.5;0.8951
735;0.9124
737.5;0.9659
740;0.9527
742.5;0.9829
745;0.9989
747.5;0.9997
750;1
752.5;1
755;1
757.5;1
760;1
762.5;1
765;1
767.5;1
770;1
772.5;1
775;0.9999
777.5;0.9999
780;0.9998
782.5;1
785;0.9979
787.5;0.9714
790;0.9471
792.5;0.9775
795;0.976
797.5;0.9834
800;0.9873
802.5;0.9791
805;0.9599
807.5;0.9889
810;0.9785
812.5;0.8948
815;0.7354
817.5;0.7632
820;0.7739
822.5;0.6462
825;0.8542
827.5;0.7901
830;0.8953
832.5;0.7845
835;0.9485
837.5;0.9527
840;0.9617
842.5;0.9951
845;0.9901
847.5;0.9949
850;0.9916
852.5;0.9874
855;0.9957
857.5;0.9937
860;1
862.5;1
865;1
867.5;1
870;1
872.5;1
875;0.9995
877.5;0.9995
880;0.9986
882.5;0.9927
885;0.9956
887.5;0.9969
890;0.9797
892.5;0.9889
895;0.8634
897.5;0.7097
900;0.676
902.5;0.6129
905;0.8328
907.5;0.617
910;0.7134
912.5;0.6955
915;0.5999
917.5;0.5321
920;0.9597
922.5;0.7435
925;0.7664
927.5;0.81
930;0.4325
932.5;0.2121
935;0.2023
937.5;0.1755
940;0.4814
942.5;0.3991
945;0.0993
947.5;0.3013
950;0.1253
952.5;0.2765
955;0.2846
957.5;0.4566
960;0.4736
962.5;0.5069
965;0.452
967.5;0.771
970;0.761
972.5;0.794
975;0.7811
977.5;0.8081
980;0.7708
982.5;0.8319
985;0.8455
987.5;0.9272
990;0.9731
992.5;0.9653
995;0.9957
997.5;0.9888
1000;0.9907
1002.5;0.9784
1005;0.9917
1007.5;0.9849
1010;0.9723
1012.5;0.9901
1015;0.9924
1017.5;0.9953
1020;0.9871
1022.5;0.9935
1025;0.9975
1027.5;0.99
1030;0.9987
1032.5;1
1035;1
1037.5;1
1040;0.9998
1042.5;1
1045;1
1047.5;1
1050;1
1052.5;1
1055;0.9997
1057.5;0.9997
1060;0.9998
1062.5;0.9982
1065;0.996897
1067.5;0.993989
1070;0.987998
1072.5;0.978896
1075;0.955696
1077.5;0.9382
1080;0.9372
1082.5;0.9975
1085;0.9583
1087.5;0.9472
1090;0.8909
1092.5;0.8287
1095;0.855
1097.5;0.9701
1100;0.8983
1102.5;0.8855
1105;0.8209
1107.5;0.6615
1110;0.6277
1112.5;0.4249
1115;0.3534
1117.5;0.3691
1120;0.2245
1122.5;0.1333
1125;0.1244
1127.5;0.1763
1130;0.4943
1132.5;0.6158
1135;0.0117
1137.5;0.5722
1140;0.504
1142.5;0.549
1145;0.142
1147.5;0.2706
1150;0.2537
1152.5;0.2883
1155;0.4808
1157.5;0.4682
1160;0.5208
1162.5;0.5685
1165;0.6936
1167.5;0.7879
1170;0.8207
1172.5;0.7097
1175;0.6056
1177.5;0.6963
1180;0.8016
1182.5;0.7353
1185;0.8248
1187.5;0.8496
1190;0.8269
1192.5;0.9469
1195;0.8826
1197.5;0.9018
1200;0.8138
1202.5;0.9094
1205;0.856552
1207.5;0.849294
1210;0.899306
1212.5;0.942937
1215;0.863445
1217.5;0.9133
1220;0.970746
1222.5;0.978127
1225;0.978191
1227.5;0.981474
1230;0.991397
1232.5;0.989397
1235;0.993599
1237.5;0.985
1240;0.9939
1242.5;0.9999
1245;0.9999
1247.5;0.995897
1250;0.9997
1252.5;0.998595
1255;0.996877
1257.5;0.998787
1260;0.993933
1262.5;0.999369
1265;0.99828
1267.5;0.993645
1270;0.998445
1272.5;0.988414
1275;0.998559
1277.5;0.999391
1280;0.975
1282.5;0.993671
1285;0.978943
1287.5;0.964597
1290;0.943109
1292.5;0.955369
1295;0.943955
1297.5;0.886766
1300;0.882588
1302.5;0.7655
1305;0.77
1307.5;0.8149
1310;0.6889
1312.5;0.6669
1315;0.66881
1317.5;0.758614
1320;0.588053
1322.5;0.652352
1325;0.775678
1327.5;0.6517
1330;0.3934
1332.5;0.4392
1335;0.5127
1337.5;0.610616
1340;0.469529
1342.5;0.26399
1345;0.185093
1347.5;0.119424
1350;0.0342
1352.5;0.0078
1355;0.0024
1357.5;0.0003
1360;0.0015
1362.5;0.0004
1365;0
1367.5;0.0014
1370;0.00030003
1372.5;0.0042
1375;0.0231023
1377.5;0.0084
1380;0.0003
1382.5;0
1385;0.0069
1387.5;0.0013
1390;0.0294
1392.5;0.0004
1395;0
1397.5;0.1833
1400;0.0126
1402.5;0.0006
1405;0.0016
1407.5;0.0067
1410;0.0032
1412.5;0.0127
1415;0.0713
1417.5;0.0696
1420;0.0121
1422.5;0.0163
1425;0.0796
1427.5;0.0467
1430;0.1052
1432.5;0.0577223
1435;0.141467
1437.5;0.0735398
1440;0.0775416
1442.5;0.0536941
1445;0.22842
1447.5;0.387416
1450;0.0323131
1452.5;0.293799
1455;0.226459
1457.5;0.479996
1460;0.2515
1462.5;0.3057
1465;0.2276
1467.5;0.2033
1470;0.2658
1472.5;0.0623062
1475;0.1825
1477.5;0.3823
1480;0.247
1482.5;0.2957
1485;0.476
1487.5;0.3685
1490;0.4688
1492.5;0.4924
1495;0.586417
1497.5;0.772527
1500;0.881876
1502.5;0.744149
1505;0.79718
1507.5;0.8808
1510;0.9734
1512.5;0.8854
1515;0.8144
1517.5;0.8505
1520;0.9072
1522.5;0.976495
1525;0.889278
1527.5;0.919287
1530;0.927504
1532.5;0.994438
1535;0.967103
1537.5;0.98062
1540;0.987285
1542.5;0.981993
1545;0.985213
1547.5;0.987086
1550;0.9984
1552.5;0.9879
1555;0.9955
1557.5;0.997
1560;0.9977
1562.5;0.991799
1565;0.995595
1567.5;0.998558
1570;0.997558
1572.5;0.997984
1575;0.997371
1577.5;0.99692
1580;0.99873
1582.5;0.996723
1585;0.99065
1587.5;0.999399
1590;0.993199
1592.5;0.9976
1595;0.9991
1597.5;0.998261
1600;0.998261
1602.5;1
1605;0.999455
1607.5;0.999373
1610;0.997792
1612.5;0.99744
1615;0.999075
1617.5;0.99757
1620;0.998994
1622.5;0.999699
1625;0.997891
1627.5;0.999899
1630;0.999698
1632.5;0.995248
1635;0.998985
1637.5;0.99908
1640;0.99793
1642.5;0.998545
1645;0.993033
1647.5;0.997802
1650;0.997802
1652.5;0.997705
1655;0.997113
1657.5;0.994311
1660;0.998288
1662.5;0.992243
1665;0.990219
1667.5;0.990752
1670;0.995473
1672.5;0.991902
1675;0.991902
1677.5;0.981006
1680;0.987495
1682.5;0.996351
1685;0.978784
1687.5;0.990661
1690;0.939609
1692.5;0.9855
1695;0.929539
1697.5;0.929539
1700;0.979709
1702.5;0.949384
1705;0.976951
1707.5;0.882136
1710;0.979728
1712.5;0.896767
1715;0.896767
1717.5;0.945595
1720;0.991535
1722.5;0.82314
1725;0.859678
1727.5;0.920361
1730;0.920361
1732.5;0.821244
1735;0.925702
1737.5;0.823334
1740;0.771506
1742.5;0.877071
1745;0.877071
1747.5;0.681088
1750;0.960072
1752.5;0.821879
1755;0.621681
1757.5;0.976551
1760;0.976551
1762.5;0.693241
1765;0.524379
1767.5;0.76144
1770;0.744428
1772.5;0.744428
1775;0.597853
1777.5;0.439492
1780;0.537528
1782.5;0.537528
1785;0.354238
1787.5;0.39562
1790;0.495756
1792.5;0.225474
1795;0.225474
1797.5;0.345996
1800;0.0827981
1802.5;0.153159
1805;0.153159
1807.5;0.0589476
1810;0.0762508
1812.5;0.062387
1815;0.0215215
1817.5;0.0215215
1820;0.0027
1822.5;0.0291
1825;0.0031
1827.5;0.0031
1830;0.0002
1832.5;0.0396
1835;0
1837.5;0
1840;0.001
1842.5;0.0025
1845;0.0025
1847.5;0
1850;0.002
1852.5;0.0015
1855;0.0015
1857.5;0.0036
1860;0.0002
1862.5;0.0029
1865;0.0029
1867.5;0.0001
1870;0
1872.5;0
1875;0
1877.5;0.00140788
1880;0.0452383
1882.5;0.0452383
1885;0.0109273
1887.5;0.004004
1890;0.004004
1892.5;0.0068034
1895;0.240824
1897.5;0.240824
1900;0.00010003
1902.5;0.00870174
1905;0.00020008
1907.5;0.00020008
1910;0.0040012
1912.5;0.0015003
1915;0.0015003
1917.5;0.0294029
1920;0.00010002
1922.5;0.00010002
1925;0.0169017
1927.5;0.0023
1930;0.0023
1932.5;0.0127013
1935;0.104398
1937.5;0.104398
1940;0.00711599
1942.5;0.0788835
1945;0.0788835
1947.5;0.134504
1950;0.269437
1952.5;0.269437
1955;0.163589
1957.5;0.21359
1960;0.21359
1962.5;0.214742
1965;0.453682
1967.5;0.453682
1970;0.53656
1972.5;0.481266
1975;0.481266
1977.5;0.559621
1980;0.559621
1982.5;0.622588
1985;0.615099
1987.5;0.615099
1990;0.604707
1992.5;0.712864
1995;0.712864
1997.5;0.747281
2000;0.777281
