Wavelength (micrometer) Transmission (upwelling and downwelling for nadir view and sun at zenith)
400;1
402.5;1
405;1
407.5;1
410;1
412.5;1
415;1
417.5;1
420;1
422.5;1
425;1
427.5;1
430;1
432.5;1
435;1
437.5;1
440;1
442.5;1
445;1
447.5;1
450;1
452.5;1
455;1
457.5;1
460;1
462.5;1
465;1
467.5;1
470;1
472.5;1
475;1
477.5;1
480;1
482.5;1
485;1
487.5;1
490;1
492.5;1
495;1
497.5;1
500;1
502.5;1
505;1
507.5;1
510;1
512.5;1
515;1
517.5;1
520;1
522.5;1
525;1
527.5;1
530;1
532.5;1
535;1
537.5;1
540;1
542.5;1
545;1
547.5;1
550;1
552.5;1
555;1
557.5;1
560;1
562.5;1
565;1
567.5;1
570;1
572.5;1
575;1
577.5;1
580;1
582.5;1
585;1
587.5;1
590;1
592.5;1
595;1
597.5;1
600;1
602.5;1
605;1
607.5;1
610;1
612.5;1
615;1
617.5;1
620;1
622.5;1
625;1
627.5;1
630;0.9796
632.5;0.9983
635;1
637.5;1
640;1
642.5;1
645;1
647.5;1
650;1
652.5;1
655;1
657.5;1
660;1
662.5;1
665;1
667.5;1
670;1
672.5;1
675;1
677.5;1
680;1
682.5;1
685;1
687.5;0.6989
690;0.8919
692.5;0.9634
695;0.9983
697.5;0.9999
700;1
702.5;1
705;1
707.5;1
710;1
712.5;1
715;1
717.5;1
720;1
722.5;1
725;1
727.5;1
730;1
732.5;1
735;1
737.5;1
740;1
742.5;1
745;1
747.5;1
750;1
752.5;1
755;1
757.5;1
760;0.2619
762.5;0.5558
765;0.6736
767.5;0.9306
770;0.9878
772.5;0.9967
775;0.9993
777.5;1
780;1
782.5;1
785;1
787.5;1
790;1
792.5;1
795;1
797.5;1
800;1
802.5;1
805;1
807.5;1
810;1
812.5;1
815;1
817.5;1
820;1
822.5;1
825;1
827.5;1
830;1
832.5;1
835;1
837.5;1
840;1
842.5;1
845;1
847.5;1
850;1
852.5;1
855;1
857.5;1
860;1
862.5;0.9997
865;1
867.5;0.9998
870;1
872.5;1
875;1
877.5;1
880;1
882.5;1
885;1
887.5;1
890;1
892.5;1
895;1
897.5;1
900;1
902.5;1
905;1
907.5;1
910;1
912.5;1
915;1
917.5;1
920;1
922.5;1
925;1
927.5;1
930;1
932.5;1
935;1
937.5;1
940;1
942.5;1
945;1
947.5;1
950;1
952.5;1
955;1
957.5;1
960;1
962.5;1
965;1
967.5;1
970;1
972.5;1
975;1
977.5;1
980;1
982.5;1
985;1
987.5;1
990;1
992.5;1
995;1
997.5;1
1000;1
1002.5;1
1005;1
1007.5;1
1010;1
1012.5;1
1015;1
1017.5;1
1020;1
1022.5;1
1025;1
1027.5;1
1030;1
1032.5;1
1035;1
1037.5;1
1040;1
1042.5;1
1045;1
1047.5;1
1050;0.9978
1052.5;0.9991
1055;0.9998
1057.5;0.9999
1060;0.9999
1062.5;0.9998
1065;0.9991
1067.5;0.9982
1070;0.9998
1072.5;0.9998
1075;0.9999
1077.5;1
1080;1
1082.5;1
1085;1
1087.5;1
1090;1
1092.5;1
1095;1
1097.5;1
1100;1
1102.5;1
1105;1
1107.5;1
1110;1
1112.5;1
1115;1
1117.5;1
1120;1
1122.5;1
1125;1
1127.5;1
1130;1
1132.5;1
1135;1
1137.5;1
1140;1
1142.5;1
1145;1
1147.5;1
1150;1
1152.5;1
1155;1
1157.5;1
1160;1
1162.5;1
1165;1
1167.5;1
1170;1
1172.5;1
1175;1
1177.5;1
1180;1
1182.5;1
1185;1
1187.5;1
1190;1
1192.5;1
1195;1
1197.5;1
1200;1
1202.5;1
1205;0.9913
1207.5;0.9847
1210;0.9941
1212.5;0.9989
1215;0.9996
1217.5;1
1220;0.9913
1222.5;0.9921
1225;0.995
1227.5;0.9986
1230;0.9996
1232.5;0.9997
1235;0.9999
1237.5;1
1240;1
1242.5;1
1245;0.9997
1247.5;0.9992
1250;0.9985
1252.5;0.9962
1255;0.9926
1257.5;0.9894
1260;0.9725
1262.5;0.9505
1265;0.93
1267.5;0.834
1270;0.9005
1272.5;0.9667
1275;0.9713
1277.5;0.9846
1280;0.996
1282.5;0.9954
1285;0.9973
1287.5;0.9999
1290;0.9984
1292.5;0.9993
1295;0.9992
1297.5;0.9997
1300;0.9999
1302.5;1
1305;1
1307.5;1
1310;1
1312.5;0.9979
1315;0.9955
1317.5;0.9984
1320;0.9977
1322.5;0.999
1325;0.9999
1327.5;1
1330;1
1332.5;1
1335;1
1337.5;0.9985
1340;0.9993
1342.5;0.9989
1345;0.9995
1347.5;0.9998
1350;1
1352.5;1
1355;1
1357.5;1
1360;1
1362.5;1
1365;1
1367.5;1
1370;0.9999
1372.5;1
1375;0.9999
1377.5;1
1380;1
1382.5;1
1385;1
1387.5;1
1390;1
1392.5;1
1395;1
1397.5;1
1400;1
1402.5;1
1405;1
1407.5;1
1410;1
1412.5;1
1415;1
1417.5;1
1420;1
1422.5;1
1425;1
1427.5;1
1430;1
1432.5;0.7051
1435;0.8836
1437.5;0.8458
1440;0.8705
1442.5;0.9461
1445;0.9592
1447.5;0.9917
1450;0.9965
1452.5;0.9983
1455;0.9993
1457.5;0.9998
1460;1
1462.5;1
1465;1
1467.5;1
1470;1
1472.5;0.9999
1475;1
1477.5;1
1480;1
1482.5;1
1485;1
1487.5;1
1490;1
1492.5;1
1495;0.9998
1497.5;0.9988
1500;0.9998
1502.5;0.9998
1505;0.9999
1507.5;1
1510;1
1512.5;1
1515;1
1517.5;1
1520;1
1522.5;0.9998
1525;0.9989
1527.5;0.9986
1530;0.9973
1532.5;0.9888
1535;0.9788
1537.5;0.9907
1540;0.9831
1542.5;0.9885
1545;0.9941
1547.5;0.9989
1550;0.9998
1552.5;1
1555;1
1557.5;1
1560;0.9999
1562.5;0.9999
1565;0.9988
1567.5;0.9707
1570;0.901
1572.5;0.8927
1575;0.9508
1577.5;0.909
1580;0.9447
1582.5;0.9766
1585;0.9947
1587.5;0.9986
1590;0.9998
1592.5;0.9999
1595;0.9996
1597.5;0.9774
1600;0.9774
1602.5;0.9059
1605;0.9182
1607.5;0.9571
1610;0.9057
1612.5;0.9374
1615;0.9729
1617.5;0.9876
1620;0.9943
1622.5;0.9963
1625;0.9957
1627.5;0.994
1630;0.9924
1632.5;0.989
1635;0.9856
1637.5;0.9778
1640;0.9664
1642.5;0.9619
1645;0.9617
1647.5;0.9556
1650;0.9556
1652.5;0.9585
1655;0.9699
1657.5;0.9843
1660;0.993
1662.5;0.9926
1665;0.8997
1667.5;0.9732
1670;0.994
1672.5;0.9879
1675;0.9879
1677.5;0.9845
1680;0.9996
1682.5;0.9867
1685;0.9804
1687.5;0.9851
1690;0.9869
1692.5;0.9862
1695;0.9892
1697.5;0.9892
1700;0.9906
1702.5;0.9819
1705;0.9805
1707.5;0.9757
1710;0.9866
1712.5;0.9929
1715;0.9929
1717.5;0.9944
1720;0.9923
1722.5;0.9827
1725;0.9806
1727.5;0.9857
1730;0.9857
1732.5;0.9857
1735;0.9906
1737.5;0.9934
1740;0.9939
1742.5;0.9957
1745;0.9957
1747.5;0.9962
1750;0.9968
1752.5;0.9982
1755;0.9981
1757.5;0.9979
1760;0.9979
1762.5;0.9972
1765;0.9947
1767.5;0.9943
1770;0.9915
1772.5;0.9915
1775;0.9872
1777.5;0.9916
1780;0.9966
1782.5;0.9966
1785;0.9934
1787.5;0.9954
1790;0.9779
1792.5;0.9908
1795;0.9908
1797.5;0.9977
1800;0.9964
1802.5;0.9957
1805;0.9957
1807.5;0.9958
1810;0.9954
1812.5;0.9954
1815;0.999
1817.5;0.999
1820;1
1822.5;1
1825;1
1827.5;1
1830;1
1832.5;1
1835;1
1837.5;1
1840;1
1842.5;1
1845;1
1847.5;1
1850;1
1852.5;1
1855;1
1857.5;1
1860;1
1862.5;1
1865;1
1867.5;1
1870;0.9999
1872.5;0.9999
1875;0.9957
1877.5;0.9944
1880;0.9881
1882.5;0.9881
1885;0.9975
1887.5;0.999
1890;0.999
1892.5;0.9995
1895;0.9999
1897.5;0.9999
1900;0.9997
1902.5;0.9998
1905;0.9996
1907.5;0.9996
1910;0.9997
1912.5;0.9998
1915;0.9998
1917.5;0.9999
1920;0.9998
1922.5;0.9998
1925;0.9999
1927.5;1
1930;1
1932.5;0.9999
1935;0.9981
1937.5;0.9981
1940;0.9837
1942.5;0.9064
1945;0.9064
1947.5;0.797
1950;0.6328
1952.5;0.6328
1955;0.4224
1957.5;0.5136
1960;0.5136
1962.5;0.6268
1965;0.5473
1967.5;0.5473
1970;0.6674
1972.5;0.8594
1975;0.8594
1977.5;0.951
1980;0.951
1982.5;0.9899
1985;0.9961
1987.5;0.9961
1990;0.9985
1992.5;0.9748
1995;0.9748
1997.5;0.6161
2000;0.3161
