Wavelength (micrometer) Transmission (upwelling and downwelling for nadir view and sun at zenith)
400;1
402.5;1
405;1
407.5;1
410;1
412.5;1
415;1
417.5;1
420;1
422.5;1
425;1
427.5;0.9998
430;0.9996
432.5;0.9994
435;0.9991
437.5;0.9989
440;0.9987
442.5;0.9985
445;0.9983
447.5;0.9981
450;0.9981
452.5;0.9979
455;0.9976
457.5;0.9968
460;0.9959
462.5;0.9951
465;0.9956
467.5;0.9963
470;0.9958
472.5;0.995
475;0.9936
477.5;0.9922
480;0.9906
482.5;0.9895
485;0.9888
487.5;0.9889
490;0.9892
492.5;0.9884
495;0.9876
497.5;0.985
500;0.9825
502.5;0.98
505;0.9774
507.5;0.9772
510;0.9771
512.5;0.9766
515;0.9761
517.5;0.9744
520;0.9724
522.5;0.9704
525;0.9683
527.5;0.966
530;0.9633
532.5;0.961
535;0.9598
537.5;0.9586
540;0.9573
542.5;0.9561
545;0.9546
547.5;0.9529
550;0.9511
552.5;0.9488
555;0.9466
557.5;0.9442
560;0.9418
562.5;0.9395
565;0.9373
567.5;0.9351
570;0.9336
572.5;0.9323
575;0.9312
577.5;0.9319
580;0.9325
582.5;0.9333
585;0.9343
587.5;0.9353
590;0.9355
592.5;0.9353
595;0.9351
597.5;0.9322
600;0.9291
602.5;0.9262
605;0.9277
607.5;0.9292
610;0.9308
612.5;0.9329
615;0.9349
617.5;0.9369
620;0.9385
622.5;0.9402
625;0.9418
627.5;0.9433
630;0.944875
632.5;0.946309
635;0.9489
637.5;0.9516
640;0.9543
642.5;0.9565
645;0.9583
647.5;0.9602
650;0.9619
652.5;0.9634
655;0.9649
657.5;0.9664
660;0.9678
662.5;0.9693
665;0.9708
667.5;0.9723
670;0.9738
672.5;0.9753
675;0.9768
677.5;0.9781
680;0.9794
682.5;0.9806
685;0.9818
687.5;0.982687
690;0.983743
692.5;0.984638
695;0.985575
697.5;0.986299
700;0.9869
702.5;0.9876
705;0.9882
707.5;0.9886
710;0.9891
712.5;0.9895
715;0.99
717.5;0.9906
720;0.9913
722.5;0.9919
725;0.9925
727.5;0.9927
730;0.9929
732.5;0.9932
735;0.9934
737.5;0.9935
740;0.9935
742.5;0.9935
745;0.9936
747.5;0.9938
750;0.9941
752.5;0.9945
755;0.9949
757.5;0.9952
760;0.9958
762.5;0.996042
765;0.996585
767.5;0.996991
770;1
772.5;1
775;1
777.5;1
780;1
782.5;1
785;1
787.5;1
790;1
792.5;1
795;1
797.5;1
800;1
802.5;1
805;1
807.5;1
810;1
812.5;1
815;1
817.5;1
820;1
822.5;1
825;1
827.5;1
830;1
832.5;1
835;1
837.5;1
840;1
842.5;1
845;1
847.5;1
850;1
852.5;1
855;1
857.5;1
860;1
862.5;1
865;1
867.5;1
870;1
872.5;1
875;1
877.5;1
880;1
882.5;1
885;1
887.5;1
890;1
892.5;1
895;1
897.5;1
900;1
902.5;1
905;1
907.5;1
910;1
912.5;1
915;1
917.5;1
920;1
922.5;1
925;1
927.5;1
930;1
932.5;1
935;1
937.5;1
940;1
942.5;1
945;1
947.5;1
950;1
952.5;1
955;1
957.5;1
960;1
962.5;1
965;1
967.5;1
970;1
972.5;1
975;1
977.5;1
980;1
982.5;1
985;1
987.5;1
990;1
992.5;1
995;1
997.5;1
1000;1
1002.5;1
1005;1
1007.5;1
1010;1
1012.5;1
1015;1
1017.5;1
1020;1
1022.5;1
1025;1
1027.5;1
1030;1
1032.5;1
1035;1
1037.5;1
1040;1
1042.5;1
1045;1
1047.5;1
1050;1
1052.5;1
1055;1
1057.5;1
1060;1
1062.5;1
1065;1
1067.5;1
1070;1
1072.5;1
1075;1
1077.5;1
1080;1
1082.5;1
1085;1
1087.5;1
1090;1
1092.5;1
1095;1
1097.5;1
1100;1
1102.5;1
1105;1
1107.5;1
1110;1
1112.5;1
1115;1
1117.5;1
1120;1
1122.5;1
1125;1
1127.5;1
1130;1
1132.5;1
1135;1
1137.5;1
1140;1
1142.5;1
1145;1
1147.5;1
1150;1
1152.5;1
1155;1
1157.5;1
1160;1
1162.5;1
1165;1
1167.5;1
1170;1
1172.5;1
1175;1
1177.5;1
1180;1
1182.5;1
1185;1
1187.5;1
1190;1
1192.5;1
1195;1
1197.5;1
1200;1
1202.5;1
1205;1
1207.5;1
1210;1
1212.5;1
1215;1
1217.5;1
1220;1
1222.5;1
1225;1
1227.5;1
1230;1
1232.5;1
1235;1
1237.5;1
1240;1
1242.5;1
1245;1
1247.5;1
1250;1
1252.5;1
1255;1
1257.5;1
1260;1
1262.5;1
1265;1
1267.5;1
1270;1
1272.5;1
1275;1
1277.5;1
1280;1
1282.5;1
1285;1
1287.5;1
1290;1
1292.5;1
1295;1
1297.5;1
1300;1
1302.5;1
1305;1
1307.5;1
1310;1
1312.5;1
1315;1
1317.5;1
1320;1
1322.5;1
1325;1
1327.5;1
1330;1
1332.5;1
1335;1
1337.5;1
1340;1
1342.5;1
1345;1
1347.5;1
1350;1
1352.5;1
1355;1
1357.5;1
1360;1
1362.5;1
1365;1
1367.5;1
1370;1
1372.5;1
1375;1
1377.5;1
1380;1
1382.5;1
1385;1
1387.5;1
1390;1
1392.5;1
1395;1
1397.5;1
1400;1
1402.5;1
1405;1
1407.5;1
1410;1
1412.5;1
1415;1
1417.5;1
1420;1
1422.5;1
1425;1
1427.5;1
1430;1
1432.5;1
1435;1
1437.5;1
1440;1
1442.5;1
1445;1
1447.5;1
1450;1
1452.5;1
1455;1
1457.5;1
1460;1
1462.5;1
1465;1
1467.5;1
1470;1
1472.5;1
1475;1
1477.5;1
1480;1
1482.5;1
1485;1
1487.5;1
1490;1
1492.5;1
1495;1
1497.5;1
1500;1
1502.5;1
1505;1
1507.5;1
1510;1
1512.5;1
1515;1
1517.5;1
1520;1
1522.5;1
1525;1
1527.5;1
1530;1
1532.5;1
1535;1
1537.5;1
1540;1
1542.5;1
1545;1
1547.5;1
1550;1
1552.5;1
1555;1
1557.5;1
1560;1
1562.5;1
1565;1
1567.5;1
1570;1
1572.5;1
1575;1
1577.5;1
1580;1
1582.5;1
1585;1
1587.5;1
1590;1
1592.5;1
1595;1
1597.5;1
1600;1
1602.5;1
1605;1
1607.5;1
1610;1
1612.5;1
1615;1
1617.5;1
1620;1
1622.5;1
1625;1
1627.5;1
1630;1
1632.5;1
1635;1
1637.5;1
1640;1
1642.5;1
1645;1
1647.5;1
1650;1
1652.5;1
1655;1
1657.5;1
1660;1
1662.5;1
1665;1
1667.5;1
1670;1
1672.5;1
1675;1
1677.5;1
1680;1
1682.5;1
1685;1
1687.5;1
1690;1
1692.5;1
1695;1
1697.5;1
1700;1
1702.5;1
1705;1
1707.5;1
1710;1
1712.5;1
1715;1
1717.5;1
1720;1
1722.5;1
1725;1
1727.5;1
1730;1
1732.5;1
1735;1
1737.5;1
1740;1
1742.5;1
1745;1
1747.5;1
1750;1
1752.5;1
1755;1
1757.5;1
1760;1
1762.5;1
1765;1
1767.5;1
1770;1
1772.5;1
1775;1
1777.5;1
1780;1
1782.5;1
1785;1
1787.5;1
1790;1
1792.5;1
1795;1
1797.5;1
1800;1
1802.5;1
1805;1
1807.5;1
1810;1
1812.5;1
1815;1
1817.5;1
1820;1
1822.5;1
1825;1
1827.5;1
1830;1
1832.5;1
1835;1
1837.5;1
1840;1
1842.5;1
1845;1
1847.5;1
1850;1
1852.5;1
1855;1
1857.5;1
1860;1
1862.5;1
1865;1
1867.5;1
1870;1
1872.5;1
1875;1
1877.5;1
1880;1
1882.5;1
1885;1
1887.5;1
1890;1
1892.5;1
1895;1
1897.5;1
1900;1
1902.5;1
1905;1
1907.5;1
1910;1
1912.5;1
1915;1
1917.5;1
1920;1
1922.5;1
1925;1
1927.5;1
1930;1
1932.5;1
1935;1
1937.5;1
1940;1
1942.5;1
1945;1
1947.5;1
1950;1
1952.5;1
1955;1
1957.5;1
1960;1
1962.5;1
1965;1
1967.5;1
1970;1
1972.5;1
1975;1
1977.5;1
1980;1
1982.5;1
1985;1
1987.5;1
1990;1
1992.5;1
1995;1
1997.5;1
2000;1